#Derived Basis Spectrum set for calculating CD spectra
#spectrum_list: /home/gnagy/Documents/Gottingen/IDPs/experiments/CD_test/sets/spectrum_SP175.inp
#SS_list: /home/gnagy/Documents/Gottingen/IDPs/experiments/CD_test/sets/DISICL_det_SP175.inp
#Number of decomposed  spectra: 71

#Combination matrix for Structural Properties:
#Basis/      3H       ALH      PIH      EBS      NBS      PP       TI       TII      TVIII    GXT      SCH      HP       TC       HC       BC       BU       LTII     LHH      UC  
# Helix1 :   0.000    1.000    0.000    0.000    0.000    0.000    0.000    0.000    1.000    0.000    0.000    0.000    0.000    0.000    0.000    0.000    0.000    0.000    0.000  
# Beta1 :    0.000    0.000    0.000    1.000    1.000    0.000    0.000    0.000    0.000    0.000    0.000    0.000    0.000    0.000    0.000    0.000    0.000    0.000    0.000  
# Helix2 :   1.000    0.000    0.000    0.000    0.000    0.000    0.000    1.000    0.000    0.000    0.000    0.000    0.000    0.000    0.000    0.000    0.000    0.000    0.000  
# Turn1 :    0.000    0.000    0.000    0.000    0.000    1.000    1.000    0.000    0.000    1.000    0.000    0.000    0.000    0.000    0.000    1.000    0.000    0.000    0.000  
# Turn2 :    0.000    0.000    1.000    0.000    0.000    0.000    0.000    0.000    0.000    0.000    1.000    1.000    0.000    1.000    1.000    0.000    1.000    1.000    0.000  
# Other :    0.000    0.000    0.000    0.000    0.000    0.000    0.000    0.000    0.000    0.000    0.000    0.000    1.000    0.000    0.000    0.000    0.000    0.000    1.000  


#|  Wavelength      Helix1         Beta1          Helix2         Turn1          Turn2          Other          
#      nm        T (10^3)       T (10^3)       T (10^3)       T (10^3)       T (10^3)       T (10^3)      
     269.0         0.201          0.445         -0.287          0.806         -0.183         -0.467      
     268.0         0.507          0.209         -2.908          1.234          0.105         -0.381      
     267.0         0.090          0.141         -0.704          0.258         -0.075          0.008      
     266.0        -0.167          0.173          1.236         -0.716         -0.364          0.358      
     265.0        -0.183          0.132          1.313         -0.907         -0.173          0.275      
     264.0        -0.093          0.131          1.041         -0.561         -0.027          0.015      
     263.0        -0.009          0.199          0.538         -0.463          0.211         -0.243      
     262.0        -0.184          0.200          1.189         -0.522          0.096         -0.136      
     261.0        -0.406          0.209          2.480         -0.759         -0.087          0.010      
     260.0        -0.367          0.076          2.252         -0.511         -0.044          0.063      
     259.0        -0.029         -0.163         -0.582          0.606          0.362         -0.177      
     258.0         0.108         -0.292         -1.383          0.677          0.560         -0.224      
     257.0         0.107         -0.291         -1.643          0.401          0.618         -0.187      
     256.0         0.010         -0.186         -0.958          0.536          0.566         -0.390      
     255.0        -0.253         -0.005          1.307          0.029          0.096         -0.222      
     254.0        -0.281          0.034          1.783          0.021          0.028         -0.224      
     253.0        -0.211         -0.006          1.123         -0.069          0.187         -0.202      
     252.0        -0.316         -0.045          1.071         -0.433          0.211         -0.034      
     251.0        -0.376         -0.155          0.653         -0.583          0.326          0.084      
     250.0        -0.326         -0.152         -0.115         -0.052          0.541         -0.268      
     249.0        -0.342         -0.071         -0.184         -0.460          0.711         -0.387      
     248.0        -0.284         -0.026         -1.511         -0.012          0.868         -0.624      
     247.0        -0.387          0.177         -1.378         -0.020          0.726         -0.751      
     246.0        -0.717          0.497         -0.008         -0.395          0.422         -0.812      
     245.0        -1.087          0.773          0.926         -0.807          0.290         -0.962      
     244.0        -1.408          0.962          0.915         -0.156          0.268         -1.414      
     243.0        -1.845          1.164          1.478         -0.783          0.450         -1.651      
     242.0        -2.425          1.174          0.543         -1.141          0.802         -1.741      
     241.0        -3.087          1.304         -0.380         -1.279          1.072         -1.928      
     240.0        -4.079          1.558          0.123         -2.553          1.189         -1.772      
     239.0        -5.415          1.942          0.906         -3.785          1.267         -1.766      
     238.0        -6.885          2.341          1.415         -3.903          1.086         -1.919      
     237.0        -8.684          2.945          3.998         -5.869          0.774         -1.773      
     236.0        -10.612          3.511          5.128         -6.698          0.170         -1.577      
     235.0        -12.623          4.297          5.875         -6.961         -0.694         -1.602      
     234.0        -14.904          5.012          6.443         -7.645         -1.649         -1.285      
     233.0        -17.414          5.752          6.920         -7.563         -2.824         -1.225      
     232.0        -20.223          6.362          8.356         -6.968         -4.382         -1.168      
     231.0        -23.226          6.790         11.495         -7.358         -5.532         -1.289      
     230.0        -26.303          7.097         14.641         -5.919         -6.982         -1.813      
     229.0        -29.222          7.225         18.036         -4.611         -8.064         -2.612      
     228.0        -31.943          7.137         21.749         -3.753         -8.838         -3.486      
     227.0        -34.214          6.714         23.945         -2.625         -9.250         -4.490      
     226.0        -36.180          6.033         25.610         -1.506         -9.746         -5.242      
     225.0        -37.670          5.235         27.073          0.058         -9.866         -6.513      
     224.0        -38.604          4.212         26.888          2.767         -9.753         -8.080      
     223.0        -39.118          3.044         26.731          4.881         -9.441         -9.545      
     222.0        -39.324          1.955         27.711          5.637         -8.982         -10.827      
     221.0        -39.066          0.850         27.444          5.940         -8.149         -12.074      
     220.0        -38.566         -0.067         26.821          5.798         -7.434         -13.041      
     219.0        -37.943         -0.789         27.066          5.805         -7.093         -13.952      
     218.0        -37.020         -1.485         25.607          6.206         -6.464         -14.887      
     217.0        -36.364         -1.691         26.489          5.403         -6.251         -15.469      
     216.0        -35.862         -1.523         28.270          3.603         -5.844         -15.901      
     215.0        -35.444         -0.805         29.778          2.253         -5.924         -16.253      
     214.0        -35.266          0.368         30.997          0.613         -6.397         -16.118      
     213.0        -35.400          2.052         33.795         -1.193         -7.677         -15.809      
     212.0        -35.498          4.142         34.458         -3.288         -8.815         -15.440      
     211.0        -36.093          7.134         37.472         -4.943         -11.322         -14.984      
     210.0        -36.637         10.477         40.041         -6.066         -14.340         -14.469      
     209.0        -36.639         14.402         40.748         -5.612         -18.451         -13.812      
     208.0        -35.641         18.935         41.173         -5.464         -23.419         -12.629      
     207.0        -33.249         24.032         43.230         -5.446         -29.878         -10.876      
     206.0        -29.005         29.800         45.068         -5.347         -37.317         -8.899      
     205.0        -23.458         35.865         49.361         -5.102         -45.779         -6.594      
     204.0        -16.530         41.264         54.257         -4.646         -53.720         -4.429      
     203.0        -8.350         45.853         57.716         -5.352         -59.292         -2.868      
     202.0         0.766         49.338         62.663         -9.219         -61.663         -2.057      
     201.0        11.198         51.252         64.524         -15.600         -60.310         -1.635      
     200.0        22.996         51.795         62.969         -24.543         -55.410         -1.762      
     199.0        35.599         51.366         59.793         -34.800         -48.264         -2.210      
     198.0        48.344         49.670         53.680         -44.366         -39.361         -3.066      
     197.0        60.015         47.025         45.475         -53.085         -29.198         -4.402      
     196.0        69.578         43.179         34.799         -59.692         -18.465         -5.678      
     195.0        76.820         37.598         17.876         -63.524         -6.636         -6.611      
     194.0        81.687         30.584         -3.415         -65.813          5.684         -6.712      
     193.0        83.968         23.005         -23.127         -64.921         16.290         -6.278      
     192.0        83.945         15.126         -41.908         -63.167         24.636         -4.073      
     191.0        81.944          7.647         -57.673         -59.721         30.725         -1.717      
     190.0        78.082          0.612         -70.105         -54.870         33.988          1.360      
     189.0        72.670         -6.005         -79.494         -50.446         36.051          4.328      
     188.0        66.546         -11.805         -85.526         -44.671         37.116          5.884      
     187.0        59.989         -17.175         -86.773         -37.669         36.583          6.559      
     186.0        53.338         -21.707         -85.133         -29.716         34.030          7.091      
     185.0        47.449         -25.305         -82.626         -21.454         31.283          6.249      
     184.0        42.168         -27.930         -79.625         -13.417         27.534          4.975      
     183.0        37.428         -29.553         -76.476         -6.506         23.395          3.302      
     182.0        33.412         -30.830         -71.668          0.815         19.004          0.952      
     181.0        30.133         -32.028         -67.955          7.370         14.601         -1.010      
     180.0        27.161         -32.838         -62.488         13.964         10.014         -3.093      
     179.0        24.769         -33.187         -56.784         19.210          6.286         -5.654      
     178.0        22.762         -32.966         -53.297         23.533          3.141         -8.235      
     177.0        20.702         -32.467         -49.333         26.635          0.080         -10.196      
     176.0        18.657         -31.999         -44.755         25.900         -0.880         -12.093      
     175.0        16.268         -31.104         -40.080         28.292         -3.192         -13.596


#Calibration curves for SS error estimation:
# curve     1-globular,unscaled  2-globular,rescaled  3-general,unscaled   4-general,rescaled
#RMSDj/     dSSj_mean  dSSj_SD   dSSj_mean  dSSj_SD   dSSj_mean  dSSj_SD   dSSj_mean  dSSj_SD
#   0.000     0.000     0.048      0.000     0.058      0.000     0.068      0.000     0.022
#   0.150     0.025	0.048      0.038     0.058      0.011     0.068      0.011     0.022 
#   0.450     0.075     0.048      0.108     0.069      0.032     0.068      0.068     0.081 
#   0.750     0.105     0.064      0.137     0.071      0.079     0.071      0.128     0.088 
#   1.050     0.128     0.060      0.153     0.070      0.114     0.078      0.162     0.090 
#   1.350     0.141     0.064      0.165     0.072      0.147     0.075      0.181     0.084 
#   1.650     0.152     0.069      0.180     0.077      0.162     0.077      0.199     0.083 
#   1.950     0.162     0.069      0.193     0.079      0.180     0.077      0.216     0.084 
#   2.250     0.171     0.071      0.204     0.081      0.195     0.081      0.232     0.084 
#   2.550     0.179     0.073      0.214     0.085      0.206     0.080      0.245     0.086 
#   2.850     0.186     0.075      0.222     0.088      0.214     0.081      0.257     0.088 
#   3.150     0.191     0.076      0.228     0.088      0.225     0.084      0.267     0.090 
#   3.450     0.196     0.078      0.234     0.090      0.236     0.086      0.276     0.091 
#   3.750     0.199     0.078      0.239     0.092      0.242     0.088      0.283     0.093 
#   4.050     0.205     0.078      0.246     0.094      0.248     0.089      0.290     0.095 
#   4.350     0.209     0.080      0.252     0.095      0.256     0.092      0.296     0.095 
#   4.650     0.213     0.081      0.257     0.098      0.260     0.091      0.301     0.095 
#   4.950     0.219     0.082      0.263     0.099      0.266     0.091      0.306     0.095 
#   5.250     0.221     0.082      0.267     0.098      0.270     0.092      0.309     0.094 
#   5.550     0.227     0.083      0.273     0.098      0.273     0.091      0.314     0.095 
#   5.850     0.229     0.083      0.277     0.097      0.278     0.092      0.320     0.094 
#   6.150     0.234     0.082      0.283     0.096      0.281     0.092      0.325     0.095 
#   6.450     0.240     0.086      0.290     0.096      0.285     0.091      0.329     0.095 
#   6.750     0.243     0.083      0.295     0.096      0.290     0.092      0.333     0.093 
#   7.050     0.249     0.085      0.303     0.095      0.293     0.091      0.337     0.092 
#   7.350     0.254     0.085      0.309     0.095      0.296     0.092      0.341     0.091 
#   7.650     0.257     0.085      0.314     0.094      0.299     0.089      0.345     0.090 
#   7.950     0.263     0.087      0.324     0.096      0.303     0.090      0.351     0.091 
#   8.250     0.268     0.088      0.331     0.095      0.307     0.089      0.356     0.090 
#   8.550     0.273     0.088      0.338     0.096      0.310     0.089      0.363     0.090 
#   8.850     0.275     0.088      0.347     0.097      0.314     0.089      0.367     0.089 
#   9.150     0.280     0.089      0.355     0.098      0.318     0.088      0.371     0.090 
#   9.450     0.285     0.089      0.359     0.096      0.320     0.089      0.376     0.089 
#   9.750     0.291     0.092      0.369     0.097      0.323     0.089      0.382     0.089 
#  10.050     0.296     0.093      0.374     0.095      0.326     0.087      0.386     0.090 
#  10.350     0.301     0.094      0.382     0.097      0.331     0.089      0.394     0.090 
#  10.650     0.308     0.095      0.391     0.098      0.333     0.088      0.399     0.090 
#  10.950     0.310     0.095      0.398     0.099      0.337     0.089      0.404     0.088 
#  11.250     0.317     0.097      0.407     0.101      0.341     0.089      0.409     0.088 
#  11.550     0.317     0.097      0.416     0.099      0.344     0.090      0.417     0.088 
#  11.850     0.322     0.100      0.420     0.098      0.347     0.090      0.424     0.090 
#  12.150     0.330     0.101      0.428     0.098      0.351     0.091      0.427     0.089 
#  12.450     0.333     0.104      0.430     0.095      0.356     0.092      0.431     0.093 
#  12.750     0.334     0.101      0.439     0.098      0.359     0.089      0.439     0.088 
#  13.050     0.337     0.106      0.444     0.098      0.361     0.091      0.445     0.086 
#  13.350     0.340     0.105      0.448     0.100      0.364     0.091      0.452     0.086 
#  13.650     0.344     0.105      0.451     0.096      0.367     0.091      0.463     0.094 
#  13.950     0.351     0.107      0.463     0.098      0.369     0.092      0.470     0.099 
#  14.250     0.348     0.108      0.467     0.100      0.370     0.092      0.470     0.096 
#  14.550     0.357     0.110      0.469     0.099      0.377     0.094      0.476     0.097 
#  14.850     0.360     0.113      0.472     0.098      0.379     0.094      0.485     0.095 
#  15.150     0.362     0.114      0.483     0.096      0.380     0.095      0.494     0.097 
#  15.450     0.367     0.116      0.488     0.093      0.385     0.095      0.491     0.097 
#  15.750     0.361     0.118      0.494     0.091      0.385     0.093      0.483     0.090 
#  16.050     0.368     0.118      0.500     0.096      0.392     0.097      0.494     0.088 
#  16.350     0.370     0.121      0.503     0.092      0.391     0.098      0.495     0.083 
#  16.650     0.374     0.122      0.504     0.095      0.393     0.098      0.498     0.084 
#  16.950     0.372     0.125      0.512     0.088      0.394     0.099      0.519     0.088 
#  17.250     0.378     0.129      0.509     0.094      0.399     0.096      0.508     0.081 
#  17.550     0.382     0.127      0.518     0.090      0.401     0.098      0.535     0.092 
#  17.850     0.385     0.130      0.517     0.082      0.401     0.099      0.529     0.098 
#  18.150     0.384     0.132      0.528     0.087      0.404     0.101      0.518     0.095 
#  18.450     0.389     0.132      0.537     0.080      0.404     0.099      0.523     0.092 
#  18.750     0.390     0.135      0.546     0.082      0.409     0.102      0.529     0.087 
#  19.050     0.396     0.135      0.547     0.080      0.412     0.104      0.534     0.071 
#  19.350     0.399     0.136      0.554     0.088      0.409     0.105      0.550     0.077 
#  19.650     0.406     0.138      0.558     0.084      0.414     0.104      0.583     0.077 
#  19.950     0.400     0.138      0.566     0.086      0.419     0.103      0.549     0.073 
#  20.250     0.402     0.137      0.567     0.089      0.410     0.105      0.585     0.132 
#  20.550     0.416     0.140      0.578     0.093      0.417     0.106      0.542     0.101 
#  20.850     0.416     0.140      0.568     0.082      0.416     0.107      0.599     0.060 
#  21.150     0.419     0.168      0.638     0.096      0.420     0.121      0.544     0.161 
