#Derived Basis Spectrum set for calculating CD spectra
#spectrum_list: /home/gnagy/Documents/Gottingen/IDPs/experiments/CD_test/arom/side_Avg6/Baselines/DSSP-T0/MP79/CD_corr.inp
#SS_list: /home/gnagy/Documents/Gottingen/IDPs/experiments/CD_test/sets/Dssp_MP79.inp
#Number of decomposed  spectra: 79

#Combination matrix for Structural Properties:
#Basis/     3-Helix   4-Helix   5-Helix   Bend      Beta-Bridge Beta-strand Turn      Unclassified 
# Helix  :    1.0000    1.0000    0.0000    0.0000    0.0000    0.0000    0.0000    0.0000  
# Strand :    0.0000    0.0000    1.0000    0.0000    0.0000    1.0000    0.0000    0.0000  
# Bridge :    0.0000    0.0000    0.0000    0.0000    1.0000    0.0000    0.0000    0.0000  
# Other  :    0.0000    0.0000    0.0000    1.0000    0.0000    0.0000    1.0000    1.0000  


#|  Wavelength    Helix          Strand         Bridge          Other            
#      nm        T (10^3)       T (10^3)       T (10^3)       T (10^3)      
     269.0        0.1376         0.0971         1.7945         -0.1632      
     268.0        0.2345         0.0099         0.4860         -0.0982      
     267.0        0.0567         0.0550         -0.4098         -0.0170      
     266.0        -0.0552         0.0377         -0.3804         0.0280      
     265.0        -0.0700         0.0056         0.3222         0.0148      
     264.0        -0.0172         -0.0332         0.9771         -0.0147      
     263.0        0.0246         0.0153         0.8053         -0.0675      
     262.0        -0.0450         0.0827         -0.1038         -0.0418      
     261.0        -0.1290         0.1388         -0.6938         -0.0001      
     260.0        -0.1272         0.0389         -0.3071         0.0870      
     259.0        -0.0414         -0.1018         1.0474         0.0978      
     258.0        0.0204         -0.1371         1.0971         0.0843      
     257.0        -0.0058         -0.1126         1.2362         0.0424      
     256.0        -0.0311         -0.0340         1.6238         -0.0386      
     255.0        -0.1068         0.0554         0.8756         -0.0398      
     254.0        -0.1236         0.0518         0.2111         0.0233      
     253.0        -0.1193         0.0358         0.3251         0.0337      
     252.0        -0.1848         0.0807         -0.5243         0.0359      
     251.0        -0.2569         0.0611         -0.5976         0.0669      
     250.0        -0.2564         0.0240         0.3143         -0.0029      
     249.0        -0.3020         0.0289         0.3219         -0.0410      
     248.0        -0.3503         0.0375         0.1769         -0.0837      
     247.0        -0.4500         0.1025         -0.1120         -0.1428      
     246.0        -0.6452         0.2701         -0.9728         -0.2194      
     245.0        -0.9199         0.3814         -1.4776         -0.2921      
     244.0        -1.1880         0.4086         -0.8842         -0.3827      
     243.0        -1.5236         0.4321         -0.5336         -0.4636      
     242.0        -2.0572         0.4707         -0.6229         -0.4953      
     241.0        -2.6806         0.5008         -0.5485         -0.5091      
     240.0        -3.4914         0.7107         -1.9021         -0.5157      
     239.0        -4.5801         0.9754         -2.7031         -0.5828      
     238.0        -5.7835         1.1928         -2.8157         -0.6437      
     237.0        -7.1435         1.5037         -3.9399         -0.7536      
     236.0        -8.6532         1.8387         -6.0675         -0.8437      
     235.0        -10.2824         2.1437         -8.6001         -0.9610      
     234.0        -12.1504         2.5163         -12.4031         -1.0290      
     233.0        -14.2138         2.8697         -15.2672         -1.1961      
     232.0        -16.4927         3.1064         -17.8436         -1.3249      
     231.0        -18.8752         3.2831         -19.2730         -1.4847      
     230.0        -21.2957         3.3900         -18.7053         -1.7061      
     229.0        -23.6068         3.3719         -17.5008         -1.9372      
     228.0        -25.7568         3.2452         -15.5182         -2.1922      
     227.0        -27.6511         2.9274         -12.3727         -2.4840      
     226.0        -29.3574         2.5012         -9.4085         -2.7364      
     225.0        -30.7313         1.9031         -3.7908         -3.0733      
     224.0        -31.7413         1.1774         3.6269         -3.4499      
     223.0        -32.4378         0.3965         10.9506         -3.8215      
     222.0        -32.8293         -0.3380         17.5587         -4.1945      
     221.0        -32.9353         -1.0512         24.0408         -4.5872      
     220.0        -32.8289         -1.6432         29.2045         -4.9736      
     219.0        -32.5083         -2.2160         34.5622         -5.3971      
     218.0        -32.0123         -2.7769         39.5997         -5.7507      
     217.0        -31.5468         -3.0900         42.8680         -6.0803      
     216.0        -31.1201         -3.1959         45.0761         -6.3351      
     215.0        -30.7281         -3.0157         45.8378         -6.6244      
     214.0        -30.4880         -2.5980         44.5446         -6.8174      
     213.0        -30.3896         -1.9613         41.3167         -7.0591      
     212.0        -30.3982         -1.1276         36.0326         -7.2978      
     211.0        -30.6634         0.1058         27.9297         -7.6106      
     210.0        -30.8938         1.4640         18.6018         -7.9569      
     209.0        -30.7377         2.9980         8.2267         -8.4356      
     208.0        -29.7435         4.7558         -4.6457         -8.9613      
     207.0        -27.4989         6.6144         -20.0163         -9.5523      
     206.0        -23.7827         8.5927         -37.5693         -10.2419      
     205.0        -18.7995         10.5924         -56.6397         -10.8892      
     204.0        -12.6322         12.2413         -74.5640         -11.4034      
     203.0        -5.5270         13.6223         -89.8829         -11.7848      
     202.0        2.3522         14.8067         -102.4582         -12.0181      
     201.0        11.0816         15.5410         -110.4818         -12.0223      
     200.0        20.5848         15.9358         -114.0875         -11.9379      
     199.0        30.6128         16.0775         -113.6695         -11.7789      
     198.0        40.5710         15.7691         -108.6557         -11.5179      
     197.0        49.5083         15.2924         -101.9849         -11.2153      
     196.0        56.7060         14.6003         -94.2416         -10.7521      
     195.0        61.7509         13.4098         -82.6993         -10.0220      
     194.0        64.6445         11.7666         -71.0622         -8.8733      
     193.0        65.5883         9.7773         -59.3108         -7.4226      
     192.0        64.7684         7.5639         -49.7573         -5.6505      
     191.0        62.4559         5.3557         -44.0945         -3.8755      
     190.0        58.8467         3.1472         -40.8462         -2.1694      
     189.0        54.0001         0.8206         -34.5685         -0.7047      
     188.0        48.6584         -1.5692         -28.8038         0.4730      
     187.0        43.2130         -4.1302         -20.8854         1.2626      
     186.0        37.8715         -6.5307         -14.8321         1.7724      
     185.0        33.1538         -8.7235         -9.3065         1.8158      
     184.0        28.8609         -10.6783         -3.7918         1.4129      
     183.0        24.8835         -12.3027         2.1045         0.6410      
     182.0        21.5540         -13.8445         4.9069         -0.1770      
     181.0        18.8054         -15.2237         8.5211         -1.1705      
     180.0        16.4475         -16.3855         11.8419         -2.1567      
     179.0        14.5194         -17.2642         15.9071         -3.2762      
     178.0        12.7275         -17.7651         19.3738         -4.4958      

#Calibration curves for SS error estimation:
# curve     1-globular,unscaled  2-globular,rescaled  3-general,unscaled   4-general,rescaled
#RMSDj/     dSSj_mean  dSSj_SD   dSSj_mean  dSSj_SD   dSSj_mean  dSSj_SD   dSSj_mean  dSSj_SD
#   0.000     0.000     0.012      -----     -----      -----     -----      -----     ----- 
#   0.150     0.012     0.012      0.048     0.044      0.015     0.026      0.029     0.054 
#   0.450     0.068     0.054      0.096     0.059      0.084     0.071      0.105     0.069 
#   0.750     0.096     0.057      0.118     0.068      0.106     0.069      0.137     0.077 
#   1.050     0.103     0.059      0.139     0.080      0.116     0.074      0.160     0.088 
#   1.350     0.116     0.066      0.163     0.088      0.138     0.079      0.189     0.097 
#   1.650     0.126     0.069      0.186     0.100      0.157     0.089      0.218     0.106 
#   1.950     0.135     0.072      0.205     0.110      0.170     0.090      0.242     0.116 
#   2.250     0.142     0.072      0.215     0.117      0.182     0.095      0.258     0.126 
#   2.550     0.151     0.074      0.220     0.118      0.194     0.101      0.267     0.131 
#   2.850     0.158     0.076      0.225     0.118      0.202     0.103      0.271     0.130 
#   3.150     0.167     0.079      0.228     0.116      0.206     0.102      0.273     0.128 
#   3.450     0.172     0.080      0.230     0.116      0.217     0.106      0.277     0.126 
#   3.750     0.181     0.082      0.234     0.113      0.224     0.107      0.280     0.124 
#   4.050     0.187     0.084      0.238     0.111      0.230     0.107      0.282     0.121 
#   4.350     0.193     0.084      0.241     0.108      0.236     0.108      0.286     0.119 
#   4.650     0.200     0.086      0.246     0.108      0.243     0.109      0.291     0.119 
#   4.950     0.208     0.087      0.252     0.107      0.249     0.109      0.295     0.117 
#   5.250     0.215     0.090      0.258     0.106      0.255     0.108      0.299     0.116 
#   5.550     0.222     0.091      0.262     0.103      0.261     0.109      0.304     0.114 
#   5.850     0.229     0.093      0.267     0.103      0.266     0.108      0.308     0.114 
#   6.150     0.236     0.094      0.270     0.101      0.272     0.109      0.315     0.112 
#   6.450     0.240     0.095      0.277     0.101      0.275     0.109      0.320     0.113 
#   6.750     0.250     0.097      0.282     0.099      0.281     0.112      0.324     0.111 
#   7.050     0.252     0.098      0.289     0.099      0.286     0.112      0.329     0.111 
#   7.350     0.260     0.101      0.296     0.099      0.289     0.112      0.333     0.110 
#   7.650     0.264     0.101      0.303     0.099      0.294     0.113      0.340     0.109 
#   7.950     0.268     0.104      0.311     0.099      0.297     0.115      0.346     0.111 
#   8.250     0.272     0.104      0.318     0.098      0.302     0.117      0.350     0.110 
#   8.550     0.276     0.109      0.327     0.101      0.305     0.115      0.352     0.109 
#   8.850     0.281     0.110      0.334     0.100      0.308     0.117      0.357     0.110 
#   9.150     0.283     0.112      0.338     0.102      0.312     0.118      0.361     0.110 
#   9.450     0.289     0.114      0.346     0.103      0.317     0.120      0.370     0.109 
#   9.750     0.291     0.116      0.353     0.104      0.317     0.119      0.373     0.110 
#  10.050     0.291     0.116      0.356     0.101      0.320     0.120      0.381     0.110 
#  10.350     0.294     0.116      0.362     0.102      0.323     0.120      0.388     0.112 
#  10.650     0.297     0.120      0.373     0.103      0.329     0.119      0.388     0.110 
#  10.950     0.302     0.123      0.378     0.104      0.332     0.121      0.398     0.112 
#  11.250     0.301     0.122      0.390     0.106      0.331     0.121      0.400     0.112 
#  11.550     0.307     0.124      0.397     0.107      0.335     0.120      0.408     0.111 
#  11.850     0.305     0.122      0.407     0.110      0.337     0.119      0.410     0.109 
#  12.150     0.304     0.123      0.413     0.108      0.337     0.120      0.415     0.110 
#  12.450     0.309     0.125      0.420     0.112      0.340     0.122      0.419     0.110 
#  12.750     0.311     0.124      0.427     0.111      0.341     0.122      0.424     0.107 
#  13.050     0.311     0.124      0.433     0.115      0.347     0.120      0.431     0.113 
#  13.350     0.315     0.124      0.437     0.115      0.349     0.121      0.435     0.110 
#  13.650     0.317     0.123      0.436     0.115      0.349     0.120      0.441     0.109 
#  13.950     0.317     0.125      0.436     0.107      0.354     0.122      0.446     0.113 
#  14.250     0.318     0.124      0.443     0.107      0.354     0.120      0.447     0.106 
#  14.550     0.324     0.124      0.452     0.105      0.358     0.120      0.453     0.110 
#  14.850     0.323     0.126      0.462     0.106      0.360     0.122      0.456     0.107 
#  15.150     0.323     0.128      0.465     0.112      0.359     0.122      0.457     0.103 
#  15.450     0.328     0.127      0.457     0.108      0.364     0.120      0.466     0.105 
#  15.750     0.329     0.130      0.472     0.110      0.366     0.121      0.466     0.107 
#  16.050     0.328     0.130      0.472     0.104      0.366     0.120      0.475     0.107 
#  16.350     0.332     0.128      0.485     0.103      0.369     0.118      0.479     0.106 
#  16.650     0.336     0.131      0.486     0.099      0.370     0.123      0.484     0.106 
#  16.950     0.336     0.132      0.499     0.101      0.370     0.120      0.484     0.102 
#  17.250     0.335     0.135      0.508     0.097      0.372     0.121      0.492     0.098 
#  17.550     0.336     0.138      0.522     0.098      0.375     0.121      0.493     0.101 
#  17.850     0.337     0.139      0.535     0.100      0.381     0.123      0.496     0.101 
#  18.150     0.337     0.137      0.533     0.096      0.382     0.123      0.504     0.102 
#  18.450     0.340     0.139      0.568     0.106      0.385     0.123      0.514     0.110 
#  18.750     0.344     0.138      0.568     0.104      0.382     0.123      0.516     0.101 
#  19.050     0.349     0.140      0.567     0.109      0.386     0.124      0.513     0.102 
#  19.350     0.346     0.142      0.565     0.107      0.388     0.126      0.515     0.102 
#  19.650     0.346     0.146      0.558     0.115      0.391     0.126      0.516     0.098 
#  19.950     0.350     0.151      0.564     0.102      0.388     0.127      0.522     0.092 
#  20.250     0.351     0.148      0.565     0.095      0.393     0.124      0.529     0.095 
#  20.550     0.347     0.152      0.569     0.109      0.393     0.126      0.530     0.097 
#  20.850     0.344     0.154      0.581     0.096      0.394     0.128      0.541     0.096 
#  21.150     0.331     0.158      0.642     0.111      0.412     0.148      0.589     0.096 
