#Derived Basis Spectrum set for calculating CD spectra
#spectrum_list: /home/gnagy/Documents/Gottingen/IDPs/experiments/CD_test/sets/spectrum_SP175.inp
#SS_list: /home/gnagy/Documents/Gottingen/IDPs/experiments/CD_test/sets/DISICL_det_SP175.inp
#Number of decomposed  spectra: 71

#Combination matrix for Structural Properties:
#Basis/  3H        ALH       PIH       EBS       NBS       PP        TI        TII       TVIII     GXT       SCH       HP        TC        HC        BC        BU        LTII      LHH       UC        
# HEL1 :    0.000    1.000    1.000    0.000    0.000    0.000    0.000    0.000    0.000    0.000    0.000    0.000    0.000    1.000    0.000    0.000    0.000    0.000    0.000  
# BSTR :    0.000    0.000    0.000    1.000    1.000    0.000    0.000    0.000    1.000    0.000    0.000    0.000    0.000    0.000    0.000    0.000    0.000    0.000    0.000  
# HEL2 :    1.000    0.000    0.000    0.000    0.000    1.000    0.000    1.000    0.000    0.000    0.000    0.000    0.000    0.000    0.000    0.000    0.000    0.000    0.000  
# TRN2 :    0.000    0.000    0.000    0.000    0.000    0.000    0.000    0.000    0.000    0.000    1.000    0.000    0.000    0.000    1.000    1.000    1.000    1.000    0.000  
# TRN1 :    0.000    0.000    0.000    0.000    0.000    0.000    1.000    0.000    0.000    0.000    0.000    1.000    0.000    0.000    0.000    0.000    0.000    0.000    0.000  
# UNC :    0.000    0.000    0.000    0.000    0.000    0.000    0.000    0.000    0.000    1.000    0.000    0.000    1.000    0.000    0.000    0.000    0.000    0.000    1.000  


#|  Wavelength      HEL1           BSTR           HEL2           TRN2           TRN1           UNC            
#      nm        T (10^3)       T (10^3)       T (10^3)       T (10^3)       T (10^3)       T (10^3)      
     269.0         0.147          0.477         -0.290         -0.106          1.295         -0.441      
     268.0         0.426          0.325         -1.139          0.378          0.718         -0.521      
     267.0         0.101          0.132         -0.740          0.112          0.277         -0.010      
     266.0        -0.155          0.117          0.346         -0.511         -0.467          0.396      
     265.0        -0.175          0.104          0.768         -0.417         -0.941          0.291      
     264.0        -0.117          0.161          1.145         -0.328         -0.798          0.001      
     263.0        -0.025          0.223          0.801          0.039         -0.571         -0.313      
     262.0        -0.141          0.178          0.900          0.039         -0.834         -0.175      
     261.0        -0.273          0.085          0.948          0.049         -1.035          0.026      
     260.0        -0.224         -0.066          0.796          0.244         -0.945          0.062      
     259.0         0.012         -0.176         -0.228          0.691          0.208         -0.210      
     258.0         0.077         -0.241         -0.449          0.667          0.873         -0.254      
     257.0         0.058         -0.243         -0.674          0.667          0.880         -0.235      
     256.0        -0.042         -0.104          0.201          0.533          0.529         -0.422      
     255.0        -0.232         -0.014          1.120          0.067         -0.272         -0.185      
     254.0        -0.228          0.002          1.507          0.097         -0.876         -0.197      
     253.0        -0.233          0.008          1.045         -0.056          0.099         -0.107      
     252.0        -0.363         -0.046          0.687         -0.228          0.587          0.127      
     251.0        -0.421         -0.169          0.516         -0.051          0.319          0.202      
     250.0        -0.368         -0.125          0.709          0.376         -0.088         -0.235      
     249.0        -0.359         -0.074          0.667          0.625         -0.682         -0.426      
     248.0        -0.310          0.020          0.087          0.921         -0.550         -0.702      
     247.0        -0.429          0.235          0.198          0.718         -0.451         -0.815      
     246.0        -0.697          0.470          0.699          0.508         -1.186         -0.830      
     245.0        -0.986          0.675          1.239          0.625         -2.526         -1.034      
     244.0        -1.247          0.848          1.814          1.095         -3.452         -1.576      
     243.0        -1.634          0.998          2.135          1.374         -4.324         -1.851      
     242.0        -2.194          1.031          1.696          1.771         -4.660         -1.969      
     241.0        -2.818          1.193          1.920          2.299         -5.962         -2.304      
     240.0        -3.677          1.320          2.044          2.803         -8.115         -2.296      
     239.0        -4.852          1.579          2.527          3.340         -10.680         -2.427      
     238.0        -6.216          1.905          3.420          3.737         -12.482         -2.695      
     237.0        -7.844          2.323          4.733          3.705         -15.516         -2.615      
     236.0        -9.618          2.768          5.750          3.711         -18.521         -2.536      
     235.0        -11.527          3.505          7.129          3.399         -21.461         -2.656      
     234.0        -13.713          4.156          7.980          2.879         -24.144         -2.385      
     233.0        -16.196          4.945          9.531          1.917         -26.321         -2.268      
     232.0        -19.021          5.616         11.782          0.470         -27.569         -2.056      
     231.0        -21.971          6.033         15.148         -0.649         -29.977         -2.054      
     230.0        -25.007          6.417         18.903         -1.861         -31.176         -2.314      
     229.0        -27.867          6.608         22.687         -2.735         -32.238         -2.827      
     228.0        -30.533          6.571         26.344         -3.484         -32.924         -3.389      
     227.0        -32.783          6.249         29.330         -3.855         -33.326         -4.148      
     226.0        -34.801          5.688         31.721         -4.562         -32.679         -4.602      
     225.0        -36.363          5.071         34.522         -4.959         -31.921         -5.588      
     224.0        -37.459          4.391         36.910         -5.305         -29.885         -6.823      
     223.0        -38.151          3.530         38.912         -5.658         -27.703         -7.944      
     222.0        -38.486          2.629         40.879         -5.958         -26.289         -8.952      
     221.0        -38.366          1.708         41.850         -5.899         -24.957         -10.018      
     220.0        -37.957          0.882         41.953         -5.723         -24.152         -10.882      
     219.0        -37.413          0.230         42.137         -5.930         -23.022         -11.623      
     218.0        -36.577         -0.349         41.575         -5.603         -21.843         -12.549      
     217.0        -35.958         -0.603         41.196         -5.821         -20.724         -13.035      
     216.0        -35.385         -0.621         40.616         -5.609         -20.487         -13.464      
     215.0        -34.896         -0.070         39.846         -5.737         -20.353         -13.810      
     214.0        -34.574          0.836         38.381         -5.872         -21.203         -13.745      
     213.0        -34.554          2.192         37.280         -6.889         -21.966         -13.385      
     212.0        -34.522          3.971         35.003         -7.578         -23.154         -13.162      
     211.0        -34.954          6.515         33.835         -9.357         -24.868         -12.748      
     210.0        -35.348          9.451         32.617         -11.600         -26.953         -12.235      
     209.0        -35.326         13.109         31.025         -14.968         -28.901         -11.514      
     208.0        -34.383         17.357         28.776         -19.451         -31.186         -10.254      
     207.0        -32.114         22.120         26.800         -25.842         -34.017         -8.276      
     206.0        -28.023         27.492         24.401         -33.077         -38.312         -6.221      
     205.0        -22.591         32.984         22.122         -41.241         -42.449         -3.741      
     204.0        -15.726         37.799         19.714         -48.877         -46.264         -1.409      
     203.0        -7.570         41.769         15.332         -54.293         -48.178          0.163      
     202.0         1.686         44.469         10.293         -56.826         -49.580          0.777      
     201.0        12.187         45.702          2.746         -56.654         -48.508          0.879      
     200.0        23.966         45.715         -6.609         -53.815         -46.446          0.117      
     199.0        36.357         44.928         -16.472         -49.908         -41.914         -0.963      
     198.0        48.706         43.149         -26.379         -44.723         -35.005         -2.585      
     197.0        59.828         40.730         -35.337         -38.676         -26.292         -4.783      
     196.0        68.846         37.376         -43.430         -31.567         -17.039         -7.022      
     195.0        75.602         32.481         -53.548         -22.104         -6.584         -9.107      
     194.0        80.074         26.350         -64.770         -11.299          3.342         -10.498      
     193.0        82.145         19.646         -73.723         -1.021         11.801         -11.082      
     192.0        82.069         12.408         -83.684          8.144         20.012         -9.747      
     191.0        80.213          5.456         -91.005         16.096         24.919         -8.104      
     190.0        76.541         -1.075         -95.482         21.592         27.544         -5.463      
     189.0        71.451         -7.325         -97.973         26.208         27.519         -2.811      
     188.0        65.626         -12.660         -97.401         29.420         27.536         -1.168      
     187.0        59.361         -17.538         -92.732         30.756         26.402         -0.078      
     186.0        52.966         -21.723         -87.625         30.190         26.767          1.148      
     185.0        47.360         -25.072         -81.724         29.741         25.988          0.920      
     184.0        42.199         -27.392         -74.858         27.806         24.460          0.263      
     183.0        37.483         -28.693         -67.606         25.008         21.683         -0.865      
     182.0        33.510         -29.719         -59.357         22.054         18.776         -2.668      
     181.0        30.116         -30.558         -51.569         18.406         16.287         -4.134      
     180.0        27.057         -31.098         -43.640         14.584         14.830         -5.638      
     179.0        24.571         -31.207         -35.633         11.305         12.674         -7.711      
     178.0        22.311         -30.641         -28.661          7.980         11.181         -9.875      
     177.0        20.020         -29.878         -21.985          4.559          9.217         -11.449      
     176.0        17.903         -29.358         -16.580          3.068          6.068         -13.222      
     175.0        15.182         -28.124         -9.687         -0.446          6.358         -14.170      
