#Derived Basis Spectrum set for calculating CD spectra
#spectrum_list: /home/gnagy/Documents/Gottingen/IDPs/experiments/CD_test/arom/SC_Dssp-1/Baselines/SC_2T121/MP79/spectra_side.inp
#SS_list: /home/gnagy/Documents/Gottingen/IDPs/experiments/CD_test/sets/Dssp_MP79.inp
#Number of decomposed  spectra: 79

#Combination matrix for Structural Properties:
#Basis/    3-Helix   4-Helix   5-Helix   Bend   Beta-Bridge Beta-strand Turn     Unclassified 
# BS1 :    1.0000    1.0000    1.0000    0.0000    0.0000    0.0000    0.0000    0.0000  
# BS2 :    0.0000    0.0000    0.0000    0.0000    0.0000    1.0000    0.0000    0.0000  
# BS3 :    0.0000    0.0000    0.0000    1.0000    1.0000    0.0000    1.0000    1.0000  


#|  Wavelength      BS1            BS2            BS3            
#      nm        T (10^3)       T (10^3)       T (10^3)      
     269.0        0.1750         0.2357         -0.2317      
     268.0        0.2881         0.1805         -0.2397      
     267.0        0.0693         0.0949         -0.0891      
     266.0        -0.0794         -0.0235         0.0364      
     265.0        -0.0880         -0.0553         0.0423      
     264.0        -0.0307         -0.0700         0.0292      
     263.0        0.0347         0.0283         -0.0713      
     262.0        -0.0337         0.0768         -0.0552      
     261.0        -0.1209         0.1188         -0.0244      
     260.0        -0.1216         0.0673         0.0496      
     259.0        -0.0292         -0.0279         0.0683      
     258.0        0.0362         -0.0533         0.0441      
     257.0        0.0168         -0.0248         -0.0160      
     256.0        -0.0055         0.0459         -0.0825      
     255.0        -0.0770         0.1175         -0.1155      
     254.0        -0.0953         0.1391         -0.0936      
     253.0        -0.1142         0.0612         -0.0140      
     252.0        -0.1898         0.0246         0.0259      
     251.0        -0.2763         -0.0492         0.0921      
     250.0        -0.2526         -0.0152         -0.0027      
     249.0        -0.2749         0.0596         -0.0990      
     248.0        -0.2796         0.1968         -0.2591      
     247.0        -0.3633         0.2976         -0.3466      
     246.0        -0.5391         0.4737         -0.4651      
     245.0        -0.7913         0.6452         -0.6115      
     244.0        -1.0278         0.7755         -0.7618      
     243.0        -1.3370         0.8896         -0.8881      
     242.0        -1.8332         1.0151         -0.9907      
     241.0        -2.4273         1.1666         -1.0688      
     240.0        -3.2124         1.4571         -1.1766      
     239.0        -4.2729         1.8063         -1.3229      
     238.0        -5.4616         2.1078         -1.4260      
     237.0        -6.7945         2.4917         -1.6114      
     236.0        -8.2336         2.9422         -1.8915      
     235.0        -9.7850         3.3854         -2.2359      
     234.0        -11.5850         3.8157         -2.5405      
     233.0        -13.5787         4.1828         -2.8995      
     232.0        -15.8622         4.2482         -3.0634      
     231.0        -18.3025         4.0832         -3.0766      
     230.0        -20.8019         3.7542         -3.0318      
     229.0        -23.2264         3.1840         -2.8741      
     228.0        -25.5041         2.4420         -2.6588      
     227.0        -27.5077         1.4945         -2.4528      
     226.0        -29.3472         0.3556         -2.1568      
     225.0        -30.8656         -0.9482         -1.8275      
     224.0        -32.0066         -2.3229         -1.5156      
     223.0        -32.8422         -3.7946         -1.1552      
     222.0        -33.3539         -5.1461         -0.8486      
     221.0        -33.5432         -6.3839         -0.6385      
     220.0        -33.4525         -7.2970         -0.6381      
     219.0        -33.1112         -8.0845         -0.7372      
     218.0        -32.5592         -8.6723         -0.9197      
     217.0        -32.0349         -8.9701         -1.1581      
     216.0        -31.5389         -8.9398         -1.4124      
     215.0        -31.0400         -8.4778         -1.8704      
     214.0        -30.6737         -7.6698         -2.3923      
     213.0        -30.4410         -6.6570         -3.0392      
     212.0        -30.2868         -5.3083         -3.8656      
     211.0        -30.3904         -3.5773         -4.8790      
     210.0        -30.4359         -1.7093         -6.0152      
     209.0        -30.0336         0.4558         -7.4512      
     208.0        -28.7601         2.8843         -9.0883      
     207.0        -26.1815         5.4285         -10.9536      
     206.0        -22.0754         8.2152         -13.1067      
     205.0        -16.6918         11.0363         -15.2763      
     204.0        -10.1050         13.6486         -17.3635      
     203.0        -2.6015         16.2251         -19.2902      
     202.0        5.6288         18.7291         -20.9679      
     201.0        14.6416         20.8405         -22.1780      
     200.0        24.3292         22.5883         -23.0223      
     199.0        34.3889         23.8048         -23.3290      
     198.0        44.2233         24.2755         -23.0303      
     197.0        52.8762         24.1111         -22.2146      
     196.0        59.7526         23.4458         -20.9838      
     195.0        64.4914         22.2020         -19.3210      
     194.0        67.1511         20.5262         -17.3675      
     193.0        67.9400         18.5516         -15.2342      
     192.0        67.0624         16.5210         -13.0647      
     191.0        64.7638         14.3637         -11.0766      
     190.0        61.2499         12.1477         -9.3039      
     189.0        56.4781         9.6229         -7.5939      
     188.0        51.1885         6.7482         -6.0567      
     187.0        45.7831         3.4960         -4.7020      
     186.0        40.4870         0.3263         -3.6984      
     185.0        35.8398         -2.7186         -3.1425      
     184.0        31.6066         -5.6380         -2.9421      
     183.0        27.6505         -8.3659         -2.9618      
     182.0        24.2865         -11.2235         -2.9832      
     181.0        21.5379         -13.8088         -3.2336      
     180.0        19.1570         -16.1224         -3.5191      
     179.0        17.1683         -18.1070         -3.9129      
     178.0        15.3132         -19.6481         -4.4591      


#Calibration curves for SS error estimation:
# curve     1-globular,unscaled  2-globular,rescaled  3-general,unscaled   4-general,rescaled
#RMSDj/     dSSj_mean  dSSj_SD   dSSj_mean  dSSj_SD   dSSj_mean  dSSj_SD   dSSj_mean  dSSj_SD
#   0.000     0.000     0.022      0.000     0.023      0.000     0.030      0.000     0.029 
#   0.150     0.038     0.022      0.036     0.023      0.044     0.030      0.039     0.029 
#   0.450     0.058     0.034      0.067     0.038      0.066     0.046      0.083     0.054 
#   0.750     0.069     0.037      0.089     0.052      0.074     0.049      0.100     0.060 
#   1.050     0.075     0.040      0.105     0.064      0.079     0.047      0.119     0.069 
#   1.350     0.083     0.046      0.119     0.068      0.090     0.051      0.137     0.079 
#   1.650     0.093     0.052      0.141     0.078      0.101     0.055      0.161     0.088 
#   1.950     0.104     0.055      0.170     0.089      0.112     0.058      0.191     0.097 
#   2.250     0.114     0.058      0.197     0.099      0.127     0.061      0.224     0.105 
#   2.550     0.124     0.062      0.216     0.104      0.141     0.065      0.249     0.112 
#   2.850     0.134     0.066      0.227     0.104      0.155     0.069      0.263     0.110 
#   3.150     0.145     0.068      0.237     0.101      0.168     0.072      0.278     0.108 
#   3.450     0.154     0.071      0.248     0.101      0.182     0.077      0.292     0.107 
#   3.750     0.164     0.073      0.259     0.099      0.195     0.080      0.309     0.106 
#   4.050     0.171     0.076      0.270     0.099      0.206     0.084      0.324     0.106 
#   4.350     0.180     0.080      0.278     0.096      0.216     0.087      0.341     0.109 
#   4.650     0.185     0.083      0.288     0.096      0.228     0.091      0.358     0.112 
#   4.950     0.192     0.084      0.299     0.096      0.239     0.094      0.373     0.114 
#   5.250     0.198     0.087      0.308     0.093      0.248     0.098      0.388     0.117 
#   5.550     0.205     0.089      0.316     0.095      0.258     0.102      0.401     0.120 
#   5.850     0.212     0.090      0.322     0.094      0.269     0.104      0.414     0.124 
#   6.150     0.219     0.093      0.330     0.095      0.279     0.107      0.422     0.125 
#   6.450     0.226     0.095      0.340     0.095      0.286     0.110      0.430     0.128 
#   6.750     0.229     0.097      0.351     0.102      0.295     0.113      0.437     0.131 
#   7.050     0.236     0.099      0.360     0.108      0.304     0.115      0.448     0.136 
#   7.350     0.239     0.099      0.370     0.112      0.310     0.116      0.447     0.135 
#   7.650     0.245     0.104      0.383     0.113      0.319     0.118      0.454     0.136 
#   7.950     0.249     0.106      0.383     0.110      0.329     0.121      0.453     0.134 
#   8.250     0.256     0.111      0.386     0.104      0.333     0.123      0.454     0.132 
#   8.550     0.259     0.113      0.391     0.101      0.337     0.125      0.460     0.129 
#   8.850     0.263     0.115      0.398     0.101      0.345     0.127      0.460     0.125 
#   9.150     0.267     0.117      0.396     0.094      0.350     0.128      0.470     0.124 
#   9.450     0.273     0.121      0.409     0.097      0.357     0.131      0.470     0.123 
#   9.750     0.273     0.124      0.415     0.097      0.363     0.131      0.480     0.125 
#  10.050     0.275     0.126      0.417     0.093      0.366     0.130      0.482     0.119 
#  10.350     0.282     0.126      0.423     0.094      0.374     0.131      0.487     0.117 
#  10.650     0.280     0.129      0.433     0.088      0.380     0.134      0.496     0.118 
#  10.950     0.284     0.133      0.436     0.099      0.381     0.135      0.497     0.119 
#  11.250     0.292     0.135      0.454     0.093      0.385     0.134      0.500     0.111 
#  11.550     0.292     0.135      0.461     0.092      0.387     0.137      0.506     0.104 
#  11.850     0.293     0.136      0.462     0.092      0.396     0.136      0.521     0.105 
#  12.150     0.297     0.137      0.468     0.089      0.398     0.141      0.524     0.105 
#  12.450     0.298     0.143      0.487     0.088      0.406     0.138      0.532     0.099 
#  12.750     0.297     0.143      0.492     0.095      0.406     0.142      0.546     0.099 
#  13.050     0.296     0.144      0.508     0.090      0.416     0.147      0.547     0.098 
#  13.350     0.298     0.147      0.508     0.086      0.420     0.144      0.558     0.096 
#  13.650     0.300     0.150      0.526     0.087      0.424     0.147      0.566     0.097 
#  13.950     0.300     0.151      0.530     0.077      0.426     0.151      0.570     0.098 
#  14.250     0.304     0.153      0.543     0.079      0.434     0.150      0.583     0.098 
#  14.550     0.305     0.153      0.540     0.085      0.438     0.151      0.581     0.098 
#  14.850     0.298     0.154      0.573     0.089      0.438     0.154      0.590     0.088 
#  15.150     0.294     0.160      0.570     0.085      0.443     0.158      0.593     0.086 
#  15.450     0.293     0.162      0.597     0.085      0.444     0.162      0.603     0.088 
#  15.750     0.292     0.169      0.589     0.078      0.451     0.164      0.617     0.087 
#  16.050     0.295     0.172      0.603     0.081      0.449     0.170      0.618     0.088 
#  16.350     0.287     0.174      0.610     0.098      0.459     0.168      0.634     0.091 
#  16.650     0.297     0.180      0.613     0.074      0.447     0.177      0.638     0.081 
#  16.950     0.290     0.179      0.618     0.081      0.459     0.180      0.639     0.086 
#  17.250     0.276     0.178      0.624     0.091      0.458     0.181      0.650     0.090 
#  17.550     0.272     0.179      0.624     0.084      0.458     0.187      0.641     0.078 
#  17.850     0.290     0.180      0.697     0.069      0.458     0.188      0.643     0.080 
#  18.150     0.288     0.181      0.669     0.073      0.461     0.193      0.667     0.088 
#  18.450     0.283     0.180      0.681     0.077      0.456     0.194      0.653     0.074 
#  18.750     0.278     0.176      0.702     0.080      0.452     0.195      0.668     0.074 
#  19.050     0.299     0.184      0.670     0.059      0.459     0.206      0.674     0.075 
#  19.350     0.283     0.176      0.665     0.042      0.454     0.207      0.696     0.083 
#  19.650     0.289     0.171      0.716     0.065      0.456     0.207      0.704     0.076 
#  19.950     0.296     0.177      0.707     0.056      0.453     0.207      0.700     0.078 
#  20.250     0.314     0.175      0.742     0.084      0.446     0.211      0.708     0.081 
#  20.550     0.309     0.175      0.739     0.060      0.450     0.213      0.714     0.071 
#  20.850     0.318     0.178      0.740     0.058      0.443     0.216      0.732     0.076 
#  21.150     0.288     0.180      0.787     0.106      0.404     0.200      0.780     0.081 
