#Derived Basis Spectrum set for calculating CD spectra
#spectrum_list: /home/gnagy/Documents/Gottingen/IDPs/experiments/CD_test/sets/spectrum_SP175.inp
#SS_list: /home/gnagy/Documents/Gottingen/IDPs/experiments/CD_test/sets/DISICL_det_SP175.inp
#Number of decomposed  spectra: 71

#Combination matrix for Structural Properties:
#Basis/     3H       ALH      PIH      EBS      NBS      PP       TI       TII      TVIII    GXT      SCH      HP       TC       HC       BC       BU       LTII     LHH      UC        
# Alpha :   1.000    1.000    1.000    0.000    0.000    0.000    0.000    0.000    0.000    0.000    0.000    0.000    0.000    0.000    0.000    0.000    0.000    0.000    0.000  
# Beta :    0.000    0.000    0.000    1.000    1.000    0.000    0.000    0.000    0.000    0.000    0.000    0.000    0.000    0.000    0.000    0.000    0.000    0.000    0.000  
# Coil :    0.000    0.000    0.000    0.000    0.000    1.000    1.000    1.000    1.000    1.000    1.000    1.000    1.000    1.000    1.000    1.000    1.000    1.000    1.000  


#|  Wavelength      Alpha          Beta           Coil           
#      nm        T (10^3)       T (10^3)       T (10^3)      
     269.0         0.162          0.408         -0.149      
     268.0         0.301          0.394         -0.185      
     267.0         0.051          0.189         -0.048      
     266.0        -0.068          0.099          0.008      
     265.0        -0.094          0.054          0.023      
     264.0        -0.037          0.059          0.001      
     263.0        -0.003          0.165         -0.050      
     262.0        -0.114          0.125         -0.001      
     261.0        -0.238          0.034          0.076      
     260.0        -0.219         -0.102          0.143      
     259.0        -0.078         -0.150          0.121      
     258.0        -0.004         -0.210          0.109      
     257.0        -0.023         -0.173          0.074      
     256.0        -0.075         -0.135          0.057      
     255.0        -0.170         -0.121          0.074      
     254.0        -0.170         -0.128          0.094      
     253.0        -0.148         -0.104          0.084      
     252.0        -0.241         -0.110          0.093      
     251.0        -0.320         -0.172          0.121      
     250.0        -0.333         -0.140          0.078      
     249.0        -0.373         -0.050          0.022      
     248.0        -0.411          0.064         -0.054      
     247.0        -0.506          0.229         -0.136      
     246.0        -0.734          0.426         -0.199      
     245.0        -1.039          0.601         -0.272      
     244.0        -1.356          0.715         -0.331      
     243.0        -1.769          0.841         -0.384      
     242.0        -2.396          0.889         -0.396      
     241.0        -3.106          1.018         -0.426      
     240.0        -4.033          1.209         -0.431      
     239.0        -5.269          1.478         -0.463      
     238.0        -6.631          1.715         -0.479      
     237.0        -8.194          2.047         -0.532      
     236.0        -9.926          2.414         -0.610      
     235.0        -11.756          2.977         -0.801      
     234.0        -13.829          3.509         -0.968      
     233.0        -16.110          4.022         -1.191      
     232.0        -18.598          4.281         -1.367      
     231.0        -21.210          4.244         -1.467      
     230.0        -23.870          3.996         -1.528      
     229.0        -26.401          3.544         -1.565      
     228.0        -28.751          2.883         -1.576      
     227.0        -30.776          2.033         -1.621      
     226.0        -32.526          1.007         -1.668      
     225.0        -33.877         -0.134         -1.745      
     224.0        -34.807         -1.389         -1.836      
     223.0        -35.347         -2.725         -1.937      
     222.0        -35.549         -3.987         -2.058      
     221.0        -35.399         -5.098         -2.245      
     220.0        -35.021         -5.935         -2.492      
     219.0        -34.464         -6.653         -2.757      
     218.0        -33.736         -7.218         -3.016      
     217.0        -33.112         -7.443         -3.268      
     216.0        -32.608         -7.348         -3.457      
     215.0        -32.170         -6.712         -3.737      
     214.0        -31.936         -5.577         -4.035      
     213.0        -31.862         -4.063         -4.441      
     212.0        -31.893         -1.979         -5.000      
     211.0        -32.178          0.782         -5.741      
     210.0        -32.402          3.922         -6.608      
     209.0        -32.132          7.790         -7.771      
     208.0        -30.864         12.415         -9.195      
     207.0        -28.084         17.629         -10.926      
     206.0        -23.519         23.657         -13.044      
     205.0        -17.508         29.916         -15.264      
     204.0        -10.195         35.539         -17.323      
     203.0        -1.956         40.538         -19.102      
     202.0         7.005         44.444         -20.406      
     201.0        16.798         47.191         -21.222      
     200.0        27.445         48.982         -21.712      
     199.0        38.629         50.044         -21.899      
     198.0        49.679         50.022         -21.724      
     197.0        59.526         49.083         -21.241      
     196.0        67.262         46.939         -20.268      
     195.0        72.467         43.323         -18.701      
     194.0        75.213         38.422         -16.596      
     193.0        75.757         32.551         -14.095      
     192.0        74.358         26.154         -11.356      
     191.0        71.404         19.721         -8.748      
     190.0        67.071         13.316         -6.284      
     189.0        61.496          6.984         -4.036      
     188.0        55.454          1.052         -2.180      
     187.0        49.353         -4.903         -0.654      
     186.0        43.438         -10.286          0.461      
     185.0        38.258         -14.801          1.017      
     184.0        33.707         -18.355          0.984      
     183.0        29.659         -20.867          0.433      
     182.0        26.390         -23.132         -0.327      
     181.0        23.771         -25.114         -1.216      
     180.0        21.542         -26.835         -2.074      
     179.0        19.787         -28.055         -3.036      
     178.0        18.236         -28.459         -4.168      
     177.0        16.662         -28.562         -5.172      
     176.0        14.988         -28.593         -5.950      
     175.0        13.130         -28.304         -6.534     


#Calibration curves for SS error estimation:
# curve     1-globular,unscaled  2-globular,rescaled  3-general,unscaled   4-general,rescaled
#RMSDj/     dSSj_mean  dSSj_SD   dSSj_mean  dSSj_SD   dSSj_mean  dSSj_SD   dSSj_mean  dSSj_SD
#   0.000     0.000     0.016      0.000     0.017      0.000     0.029      0.000     0.025
#   0.150     0.012     0.016      0.026     0.017      0.032     0.029      0.025     0.025 
#   0.450     0.040     0.030      0.058     0.036      0.045     0.033      0.069     0.049 
#   0.750     0.056     0.038      0.075     0.047      0.065     0.042      0.091     0.061 
#   1.050     0.062     0.037      0.084     0.054      0.069     0.046      0.104     0.071 
#   1.350     0.065     0.039      0.091     0.061      0.072     0.048      0.116     0.079 
#   1.650     0.070     0.040      0.104     0.069      0.082     0.050      0.135     0.086 
#   1.950     0.078     0.041      0.123     0.079      0.090     0.052      0.158     0.093 
#   2.250     0.085     0.043      0.143     0.086      0.098     0.054      0.181     0.101 
#   2.550     0.094     0.045      0.159     0.089      0.106     0.054      0.199     0.107 
#   2.850     0.103     0.048      0.169     0.086      0.116     0.055      0.220     0.114 
#   3.150     0.111     0.049      0.181     0.083      0.124     0.057      0.232     0.118 
#   3.450     0.121     0.051      0.194     0.084      0.134     0.058      0.236     0.114 
#   3.750     0.129     0.054      0.205     0.083      0.145     0.060      0.246     0.111 
#   4.050     0.137     0.057      0.217     0.083      0.155     0.061      0.257     0.108 
#   4.350     0.145     0.058      0.229     0.083      0.164     0.062      0.265     0.107 
#   4.650     0.154     0.060      0.240     0.082      0.173     0.064      0.280     0.108 
#   4.950     0.162     0.063      0.253     0.083      0.181     0.064      0.291     0.109 
#   5.250     0.169     0.065      0.264     0.087      0.191     0.067      0.301     0.108 
#   5.550     0.177     0.067      0.278     0.090      0.201     0.067      0.313     0.109 
#   5.850     0.184     0.068      0.287     0.090      0.210     0.069      0.325     0.111 
#   6.150     0.191     0.070      0.295     0.088      0.219     0.071      0.333     0.109 
#   6.450     0.198     0.072      0.304     0.087      0.227     0.074      0.342     0.110 
#   6.750     0.207     0.073      0.311     0.085      0.237     0.076      0.349     0.107 
#   7.050     0.211     0.077      0.318     0.085      0.246     0.078      0.356     0.104 
#   7.350     0.218     0.079      0.324     0.079      0.253     0.079      0.365     0.102 
#   7.650     0.224     0.082      0.333     0.084      0.263     0.080      0.372     0.101 
#   7.950     0.232     0.083      0.339     0.082      0.271     0.083      0.380     0.100 
#   8.250     0.240     0.086      0.346     0.083      0.279     0.085      0.390     0.101 
#   8.550     0.245     0.090      0.352     0.081      0.290     0.086      0.397     0.099 
#   8.850     0.253     0.091      0.357     0.076      0.297     0.089      0.403     0.096 
#   9.150     0.258     0.092      0.364     0.076      0.305     0.091      0.412     0.095 
#   9.450     0.263     0.096      0.372     0.074      0.313     0.091      0.418     0.093 
#   9.750     0.267     0.100      0.380     0.072      0.320     0.093      0.430     0.095 
#  10.050     0.274     0.103      0.388     0.071      0.330     0.095      0.435     0.093 
#  10.350     0.280     0.104      0.399     0.075      0.332     0.098      0.446     0.093 
#  10.650     0.284     0.109      0.411     0.080      0.339     0.102      0.453     0.091 
#  10.950     0.287     0.113      0.418     0.076      0.351     0.103      0.461     0.090 
#  11.250     0.291     0.116      0.432     0.082      0.357     0.106      0.467     0.090 
#  11.550     0.296     0.120      0.435     0.074      0.364     0.108      0.478     0.090 
#  11.850     0.297     0.126      0.442     0.077      0.372     0.111      0.484     0.088 
#  12.150     0.301     0.131      0.456     0.078      0.376     0.114      0.494     0.089 
#  12.450     0.304     0.134      0.464     0.078      0.381     0.117      0.502     0.088 
#  12.750     0.305     0.139      0.476     0.080      0.385     0.120      0.510     0.089 
#  13.050     0.311     0.142      0.479     0.076      0.393     0.123      0.519     0.087 
#  13.350     0.309     0.146      0.500     0.088      0.396     0.126      0.529     0.091 
#  13.650     0.314     0.151      0.508     0.083      0.400     0.132      0.538     0.090 
#  13.950     0.318     0.153      0.515     0.076      0.406     0.137      0.547     0.090 
#  14.250     0.309     0.157      0.527     0.079      0.411     0.139      0.553     0.089 
#  14.550     0.317     0.158      0.533     0.078      0.412     0.145      0.562     0.087 
#  14.850     0.316     0.157      0.547     0.085      0.417     0.147      0.574     0.093 
#  15.150     0.315     0.160      0.555     0.080      0.423     0.148      0.581     0.091 
#  15.450     0.311     0.166      0.577     0.083      0.424     0.151      0.594     0.095 
#  15.750     0.315     0.165      0.562     0.074      0.426     0.157      0.602     0.092 
#  16.050     0.316     0.163      0.580     0.081      0.429     0.158      0.610     0.095 
#  16.350     0.320     0.163      0.588     0.064      0.434     0.162      0.619     0.099 
#  16.650     0.321     0.169      0.599     0.073      0.434     0.169      0.626     0.093 
#  16.950     0.324     0.167      0.594     0.049      0.436     0.170      0.628     0.088 
#  17.250     0.327     0.168      0.607     0.060      0.438     0.173      0.638     0.087 
#  17.550     0.325     0.167      0.618     0.056      0.437     0.177      0.644     0.089 
#  17.850     0.325     0.164      0.633     0.051      0.435     0.177      0.650     0.085 
#  18.150     0.327     0.170      0.636     0.042      0.435     0.182      0.655     0.075 
#  18.450     0.342     0.177      0.643     0.043      0.432     0.186      0.666     0.082 
#  18.750     0.338     0.169      0.656     0.049      0.442     0.184      0.676     0.081 
#  19.050     0.334     0.175      0.671     0.046      0.448     0.186      0.679     0.066 
#  19.350     0.333     0.174      0.684     0.048      0.448     0.192      0.679     0.072 
#  19.650     0.339     0.171      0.685     0.045      0.446     0.192      0.687     0.068 
#  19.950     0.344     0.183      0.698     0.037      0.446     0.191      0.694     0.064 
#  20.250     0.334     0.178      0.700     0.025      0.444     0.196      0.713     0.063 
#  20.550     0.328     0.188      0.716     0.032      0.441     0.196      0.713     0.067 
#  20.850     0.329     0.192      0.727     0.037      0.441     0.196      0.720     0.063 
#  21.150     0.293     0.190      0.779     0.064      0.411     0.197      0.758     0.062 
